File: data/LQG_putty/graphite-putty samples/Specific Heat/Graphite/sample2.csv
#EXPORTTYPE:                 ,DATA COMPARE                  ,
#FILE:                       ,sample2.ngb-ds3               ,
#FORMAT:                     ,NETZSCH5                      ,
#FTYPE:                      ,ANSI                          ,
#IDENTITY:                   ,graphite                      ,
#DECIMAL:                    ,POINT                         ,
#SEPARATOR:                  ,COMMA                         ,
#MTYPE:                      ,CP                            ,
#INSTRUMENT:                 ,NETZSCH STA 449F3             ,
#PROJECT:                    ,Gen3CSP                       ,
#DATE/TIME:                  ,12/12/2022 10:05:54 AM (UTC-5),
#CORR. FILE:                 ,baseline2.ngb-bs3             ,
#TEMPCAL:                    ,TCALZERO.TCX                  ,
#SENSITIVITY:                ,SENSZERO.EXX                  ,
#LABORATORY:                 ,STEEL                         ,
#OPERATOR:                   ,MJA                           ,
#REMARK:                     ,                              ,
#SAMPLE:                     ,sample2                       ,
#SAMPLE MASS /mg:            ,48.8,
#MATERIAL:                   ,                              ,
#REFERENCE:                  ,                              ,
#REFERENCE MASS /mg:         ,0,
#TYPE OF CRUCIBLE:           ,PtRh20 85 �l, with lid
#SAMPLE CRUCIBLE MASS /mg:   ,0,
#REFERENCE CRUCIBLE MASS /mg:,0,
#DSC RANGE /�V:              ,5000,
#TG RANGE /mg:               ,35000,
#TAU-R:                      ,---                           ,
#CORR. CODE:                 ,0,
#EXO:                        ,-1,
#RANGE:                      ,100�C/15.0(K/min)/1180�C      ,
#SEGMENT:                    ,S5/7                          ,
#SEG. 5:                     ,100�C/15.0(K/min)/1180�C      ,
,,
##Temp./C,Cp(5)/(J/(g*K)),
150.2568,-0.46783,
153.426,-0.46783,
156.594,-0.46783,
159.763,-0.46783,
162.932,1.05517,
166.1,1.05591,
169.269,1.05664,
172.438,1.05729,
175.606,1.05796,
178.775,1.0593,
181.944,1.06031,
185.113,1.06158,
188.281,1.06309,
191.45,1.0654,
194.619,1.0673,
197.787,1.07041,
200.956,1.07468,
204.125,1.08006,
207.293,1.08695,
210.462,1.09618,
213.631,1.10603,
216.8,1.11651,
219.968,1.12683,
223.137,1.13471,
226.3057,1.14311,
229.4744,1.15091,
232.643,1.15746,
235.812,1.16451,
238.981,1.1706,
242.149,1.17586,
245.318,1.18133,
248.487,1.18658,
251.655,1.19148,
254.824,1.19574,
257.993,1.20161,
261.161,1.20634,
264.33,1.21139,
267.499,1.21647,
270.668,1.22033,
273.836,1.22542,
277.005,1.23093,
280.174,1.23581,
283.342,1.24201,
286.511,1.24711,
289.68,1.2524,
292.848,1.25802,
296.017,1.26248,
299.186,1.26761,
302.3546,1.27255,
305.5233,1.27765,
308.692,1.283,
311.861,1.28652,
315.029,1.29037,
318.198,1.29378,
321.367,1.29777,
324.536,1.30316,
327.704,1.3079,
330.873,1.31246,
334.042,1.3171,
337.21,1.32211,
340.379,1.32734,
343.548,1.33079,
346.716,1.33527,
349.885,1.3396,
353.054,1.34252,
356.223,1.34621,
359.391,1.34987,
362.56,1.35297,
365.729,1.35709,
368.897,1.36156,
372.066,1.36555,
375.235,1.3692,
378.403,1.37452,
381.5722,1.38026,
384.7409,1.38735,
387.9096,1.39185,
391.078,1.39523,
394.247,1.39719,
397.416,1.39798,
400.584,1.40101,
403.753,1.40246,
406.922,1.40534,
410.091,1.40784,
413.259,1.41149,
416.428,1.41414,
419.597,1.41752,
422.765,1.41991,
425.934,1.42229,
429.103,1.42634,
432.271,1.43012,
435.44,1.43334,
438.609,1.4365,
441.778,1.44036,
444.946,1.44371,
448.115,1.44707,
451.284,1.44981,
454.452,1.45265,
457.621,1.45502,
460.7898,1.45637,
463.9585,1.45647,
467.1272,1.45572,
470.296,1.45523,
473.465,1.45496,
476.633,1.45682,
479.802,1.45774,
482.971,1.46001,
486.139,1.46245,
489.308,1.46185,
492.477,1.4619,
495.646,1.46146,
498.814,1.46336,
501.983,1.4652,
505.152,1.46699,
508.32,1.46924,
511.489,1.47094,
514.658,1.47156,
517.826,1.47158,
520.995,1.47314,
524.164,1.47234,
527.333,1.47334,
530.501,1.47336,
533.67,1.47268,
536.839,1.46972,
540.0074,1.46662,
543.1761,1.46458,
546.3448,1.46238,
549.514,1.46087,
552.682,1.45923,
555.851,1.45784,
559.02,1.45742,
562.188,1.45783,
565.357,1.45908,
568.526,1.45915,
571.694,1.4611,
574.863,1.46125,
578.032,1.46385,
581.201,1.46363,
584.369,1.46363,
587.538,1.46221,
590.707,1.45949,
593.875,1.45797,
597.044,1.4575,
600.213,1.45859,
603.381,1.45901,
606.55,1.46162,
609.719,1.46283,
612.888,1.46254,
616.056,1.46622,
619.225,1.46811,
622.3937,1.46982,
625.5624,1.47065,
628.731,1.47038,
631.9,1.47156,
635.069,1.47194,
638.237,1.47315,
641.406,1.47317,
644.575,1.47489,
647.743,1.47405,
650.912,1.47537,
654.081,1.47704,
657.249,1.47492,
660.418,1.47531,
663.587,1.47597,
666.756,1.47461,
669.924,1.47606,
673.093,1.47722,
676.262,1.47771,
679.43,1.47892,
682.599,1.48023,
685.768,1.4805,
688.936,1.48204,
692.105,1.48283,
695.274,1.48284,
698.4426,1.48187,
701.6113,1.48254,
704.78,1.485,
707.949,1.48516,
711.117,1.48474,
714.286,1.48814,
717.455,1.48864,
720.624,1.48961,
723.792,1.49108,
726.961,1.4882,
730.13,1.49012,
733.298,1.49048,
736.467,1.49302,
739.636,1.49328,
742.804,1.49561,
745.973,1.49599,
749.142,1.49675,
752.311,1.50013,
755.479,1.50052,
758.648,1.50423,
761.817,1.50393,
764.985,1.50115,
768.154,1.50105,
771.323,1.5026,
774.491,1.50584,
777.6602,1.50775,
780.8289,1.50639,
783.9976,1.50823,
787.166,1.508,
790.335,1.51191,
793.504,1.5134,
796.672,1.51664,
799.841,1.51501,
803.01,1.51595,
806.179,1.5157,
809.347,1.51578,
812.516,1.51523,
815.685,1.51453,
818.853,1.51579,
822.022,1.51878,
825.191,1.52107,
828.359,1.52197,
831.528,1.52434,
834.697,1.52564,
837.866,1.52675,
841.034,1.52858,
844.203,1.52985,
847.372,1.53057,
850.54,1.53192,
853.709,1.53302,
856.8778,1.53247,
860.0465,1.5347,
863.2152,1.5351,
866.384,1.53487,
869.553,1.53377,
872.721,1.53673,
875.89,1.53721,
879.059,1.53953,
882.227,1.54276,
885.396,1.54205,
888.565,1.54211,
891.734,1.54534,
894.902,1.54847,
898.071,1.54799,
901.24,1.55086,
904.408,1.55232,
907.577,1.5552,
910.746,1.55918,
913.914,1.55715,
917.083,1.55535,
920.252,1.55275,
923.421,1.55095,
926.589,1.55126,
929.758,1.55055,
932.927,1.55181,
936.0954,1.55262,
939.2641,1.55422,
942.4328,1.55228,
945.602,1.55283,
948.77,1.55172,
951.939,1.55506,
955.108,1.55272,
958.276,1.55249,
961.445,1.55098,
964.614,1.55461,
967.782,1.55334,
970.951,1.55364,
974.12,1.55168,
977.289,1.55287,
980.457,1.55211,
983.626,1.55423,
986.795,1.55129,
989.963,1.55523,
993.132,1.55841,
996.301,1.55567,
999.469,1.556,
1002.64,1.55207,
1005.81,1.5535,
1008.98,1.55021,
1012.14,1.54824,
1015.313,1.54476,
1018.48,1.54226,
1021.65,1.54617,
1024.82,1.54253,
1027.99,1.5381,
1031.16,1.53728,
1034.33,1.53483,
1037.49,1.53595,
1040.66,1.53787,
1043.83,1.53934,
1047,1.53775,
1050.17,1.53959,
1053.34,1.53834,
1056.51,1.53723,
1059.67,1.53928,
1062.84,1.53215,
1066.01,1.53328,
1069.18,1.53362,
1072.35,1.53151,
1075.52,1.53048,
1078.69,1.52965,
1081.86,1.52453,
1085.02,1.52127,
1088.19,1.52146,
1091.36,1.521,
1094.53,1.52606,
1097.7,1.5253,
1100,1.52224,