File: data/LQG_putty/graphite-putty samples/Specific Heat/Graphite/sample1.csv
#EXPORTTYPE:                 ,DATA COMPARE                 ,
#FILE:                       ,sample1.ngb-ds3              ,
#FORMAT:                     ,NETZSCH5                     ,
#FTYPE:                      ,ANSI                         ,
#IDENTITY:                   ,graphite                     ,
#DECIMAL:                    ,POINT                        ,
#SEPARATOR:                  ,COMMA                        ,
#MTYPE:                      ,CP                           ,
#INSTRUMENT:                 ,NETZSCH STA 449F3            ,
#PROJECT:                    ,Gen3CSP                      ,
#DATE/TIME:                  ,12/9/2022 11:00:47 AM (UTC-5),
#CORR. FILE:                 ,baseline2.ngb-bs3            ,
#TEMPCAL:                    ,TCALZERO.TCX                 ,
#SENSITIVITY:                ,SENSZERO.EXX                 ,
#LABORATORY:                 ,STEEL                        ,
#OPERATOR:                   ,MJA                          ,
#REMARK:                     ,                             ,
#SAMPLE:                     ,sample1                      ,
#SAMPLE MASS /mg:            ,51,
#MATERIAL:                   ,                             ,
#REFERENCE:                  ,                             ,
#REFERENCE MASS /mg:         ,0,
#TYPE OF CRUCIBLE:           ,PtRh20 85 �l, with lid
#SAMPLE CRUCIBLE MASS /mg:   ,0,
#REFERENCE CRUCIBLE MASS /mg:,0,
#DSC RANGE /�V:              ,5000,
#TG RANGE /mg:               ,35000,
#TAU-R:                      ,---                          ,
#CORR. CODE:                 ,0,
#EXO:                        ,-1,
#RANGE:                      ,100�C/15.0(K/min)/1180�C     ,
#SEGMENT:                    ,S5/7                         ,
#SEG. 5:                     ,100�C/15.0(K/min)/1180�C     ,
,,
##Temp./C,Cp(5)/(J/(g*K)),
138.004,-0.79727,
141.212,-1.21126,
144.421,-1.52756,
147.629,-1.77915,
150.837,-1.97764,
154.046,-2.12667,
157.254,-2.23885,
160.462,-2.3111,
163.6705,1.05495,
166.879,1.0573,
170.087,1.06057,
173.295,1.0634,
176.504,1.06709,
179.712,1.07067,
182.92,1.0754,
186.129,1.08071,
189.337,1.08584,
192.545,1.09203,
195.754,1.09819,
198.962,1.10601,
202.17,1.11227,
205.379,1.1198,
208.587,1.12798,
211.795,1.1357,
215.004,1.14405,
218.212,1.15188,
221.42,1.15859,
224.628,1.16614,
227.837,1.17345,
231.045,1.1807,
234.253,1.18786,
237.462,1.19476,
240.67,1.2006,
243.878,1.20762,
247.087,1.2133,
250.295,1.21936,
253.503,1.22458,
256.712,1.22997,
259.92,1.23406,
263.1282,1.23949,
266.337,1.24536,
269.545,1.25081,
272.753,1.25728,
275.961,1.26338,
279.17,1.27,
282.378,1.27665,
285.586,1.28246,
288.7947,1.28804,
292.003,1.29283,
295.211,1.29861,
298.42,1.30335,
301.628,1.30908,
304.836,1.31499,
308.045,1.32035,
311.253,1.32465,
314.4612,1.33064,
317.67,1.33651,
320.878,1.34137,
324.086,1.34774,
327.294,1.35337,
330.503,1.35868,
333.711,1.36341,
336.919,1.36648,
340.1277,1.37,
343.336,1.37297,
346.544,1.37473,
349.753,1.37794,
352.961,1.38282,
356.169,1.38643,
359.378,1.39183,
362.586,1.3968,
365.794,1.40179,
369.003,1.40723,
372.211,1.41264,
375.419,1.41723,
378.627,1.42237,
381.836,1.42724,
385.044,1.43108,
388.2524,1.43421,
391.461,1.43712,
394.669,1.44169,
397.877,1.44614,
401.086,1.44969,
404.294,1.45437,
407.502,1.45939,
410.711,1.46253,
413.9189,1.46698,
417.127,1.47089,
420.336,1.47337,
423.544,1.47526,
426.752,1.47693,
429.96,1.48014,
433.169,1.48341,
436.377,1.48752,
439.5854,1.49202,
442.794,1.50052,
446.002,1.50645,
449.21,1.50921,
452.419,1.51297,
455.627,1.51295,
458.835,1.51128,
462.044,1.50865,
465.2519,1.5084,
468.46,1.50857,
471.669,1.50926,
474.877,1.51115,
478.085,1.51533,
481.293,1.52015,
484.502,1.52297,
487.71,1.52497,
490.918,1.52783,
494.127,1.52703,
497.335,1.52725,
500.543,1.52785,
503.752,1.52815,
506.96,1.53153,
510.168,1.53463,
513.3766,1.53626,
516.585,1.53918,
519.793,1.54134,
523.002,1.54425,
526.21,1.5444,
529.418,1.54573,
532.626,1.54825,
535.835,1.5502,
539.0431,1.55495,
542.251,1.55719,
545.46,1.55887,
548.668,1.56208,
551.876,1.56257,
555.085,1.56397,
558.293,1.56378,
561.501,1.56403,
564.7096,1.56361,
567.918,1.5644,
571.126,1.5639,
574.335,1.56474,
577.543,1.56612,
580.751,1.56773,
583.959,1.5704,
587.168,1.57251,
590.3761,1.5748,
593.584,1.57593,
596.793,1.5788,
600.001,1.58198,
603.209,1.58257,
606.418,1.5849,
609.626,1.58633,
612.834,1.5898,
616.043,1.59034,
619.251,1.59389,
622.459,1.59601,
625.668,1.60033,
628.876,1.60151,
632.084,1.60421,
635.292,1.60386,
638.501,1.60478,
641.709,1.60584,
644.917,1.60689,
648.126,1.606,
651.334,1.60837,
654.542,1.60706,
657.751,1.60908,
660.959,1.6108,
664.1673,1.61385,
667.376,1.61548,
670.584,1.61787,
673.792,1.62086,
677.001,1.62213,
680.209,1.62391,
683.417,1.6241,
686.625,1.62646,
689.8338,1.62562,
693.042,1.62564,
696.25,1.6271,
699.459,1.62867,
702.667,1.63014,
705.875,1.63171,
709.084,1.63421,
712.292,1.63553,
715.5003,1.63644,
718.709,1.6409,
721.917,1.64241,
725.125,1.64434,
728.334,1.64676,
731.542,1.64803,
734.75,1.64786,
737.958,1.65143,
741.1668,1.65054,
744.375,1.65306,
747.583,1.65139,
750.792,1.6541,
754,1.65643,
757.208,1.65816,
760.417,1.65939,
763.625,1.65957,
766.833,1.66049,
770.042,1.66105,
773.25,1.66419,
776.458,1.66746,
779.667,1.66925,
782.875,1.668,
786.083,1.66681,
789.2915,1.66901,
792.5,1.67009,
795.708,1.67116,
798.916,1.67442,
802.125,1.6744,
805.333,1.67733,
808.541,1.67634,
811.75,1.67798,
814.958,1.67867,
818.166,1.67898,
821.375,1.68039,
824.583,1.68169,
827.791,1.6823,
831,1.68236,
834.208,1.68511,
837.416,1.68669,
840.6245,1.68855,
843.833,1.68567,
847.041,1.68812,
850.249,1.68954,
853.458,1.69208,
856.666,1.69153,
859.874,1.69256,
863.083,1.69109,
866.291,1.69362,
869.499,1.69213,
872.708,1.6897,
875.916,1.68824,
879.124,1.68882,
882.333,1.68858,
885.541,1.68747,
888.749,1.68797,
891.958,1.68973,
895.166,1.68729,
898.374,1.68541,
901.582,1.68249,
904.791,1.68365,
907.999,1.681,
911.207,1.67961,
914.4157,1.67848,
917.624,1.67521,
920.832,1.67541,
924.041,1.66967,
927.249,1.66676,
930.457,1.6634,
933.666,1.66547,
936.874,1.66051,
940.0822,1.65915,
943.291,1.65655,
946.499,1.65442,
949.707,1.64897,
952.915,1.64417,
956.124,1.64191,
959.332,1.64005,
962.54,1.63848,
965.7487,1.63732,
968.957,1.6319,
972.165,1.63232,
975.374,1.62686,
978.582,1.62433,
981.79,1.61843,
984.999,1.61672,
988.207,1.61896,
991.4152,1.61465,
994.624,1.61205,
997.832,1.60761,
1001.04,1.60357,
1004.25,1.59811,
1007.46,1.59674,
1010.67,1.5841,
1013.87,1.57942,
1017.08,1.57312,
1020.29,1.57179,
1023.5,1.56831,
1026.71,1.56261,
1029.91,1.56258,
1033.12,1.55857,
1036.33,1.55216,
1039.54,1.55038,
1042.75,1.54385,
1045.96,1.53938,
1049.16,1.54062,
1052.37,1.53636,
1055.58,1.52588,
1058.79,1.52035,
1062,1.51565,
1065.21,1.51119,
1068.41,1.50958,
1071.62,1.50384,
1074.83,1.49759,
1078.04,1.49196,
1081.25,1.48754,
1084.46,1.48301,
1087.66,1.47858,
1090.87,1.47321,
1094.08,1.46499,
1097.29,1.45429,
1099.98,1.44664,