File: data/LQG_putty/graphite-putty samples/Specific Heat/Graphite/sample3.csv
#EXPORTTYPE:                 ,DATA COMPARE                 ,
#FILE:                       ,sample3.ngb-ds3              ,
#FORMAT:                     ,NETZSCH5                     ,
#FTYPE:                      ,ANSI                         ,
#IDENTITY:                   ,graphite                     ,
#DECIMAL:                    ,POINT                        ,
#SEPARATOR:                  ,COMMA                        ,
#MTYPE:                      ,CP                           ,
#INSTRUMENT:                 ,NETZSCH STA 449F3            ,
#PROJECT:                    ,Gen3CSP                      ,
#DATE/TIME:                  ,12/12/2022 3:10:24 PM (UTC-5),
#CORR. FILE:                 ,baseline2.ngb-bs3            ,
#TEMPCAL:                    ,TCALZERO.TCX                 ,
#SENSITIVITY:                ,SENSZERO.EXX                 ,
#LABORATORY:                 ,STEEL                        ,
#OPERATOR:                   ,MJA                          ,
#REMARK:                     ,                             ,
#SAMPLE:                     ,sample3                      ,
#SAMPLE MASS /mg:            ,33.9,
#MATERIAL:                   ,                             ,
#REFERENCE:                  ,                             ,
#REFERENCE MASS /mg:         ,0,
#TYPE OF CRUCIBLE:           ,PtRh20 85 �l, with lid
#SAMPLE CRUCIBLE MASS /mg:   ,0,
#REFERENCE CRUCIBLE MASS /mg:,0,
#DSC RANGE /�V:              ,5000,
#TG RANGE /mg:               ,35000,
#TAU-R:                      ,---                          ,
#CORR. CODE:                 ,0,
#EXO:                        ,-1,
#RANGE:                      ,100�C/15.0(K/min)/1180�C     ,
#SEGMENT:                    ,S5/7                         ,
#SEG. 5:                     ,100�C/15.0(K/min)/1180�C     ,
,,
##Temp./C,Cp(5)/(J/(g*K)),
138.118,-1.06831,
141.326,-1.52822,
144.535,-1.87319,
147.743,-2.13650,
150.951,-2.33782,
154.16,-2.48204,
157.368,-2.58603,
160.576,-2.66763,
163.7845,1.19341,
166.993,1.18433,
170.201,1.17774,
173.409,1.17007,
176.618,1.16343,
179.826,1.15698,
183.034,1.15136,
186.243,1.14553,
189.451,1.14256,
192.659,1.14018,
195.868,1.14126,
199.076,1.14709,
202.284,1.15597,
205.493,1.17207,
208.701,1.18945,
211.909,1.20847,
215.1175,1.22668,
218.326,1.24264,
221.534,1.25351,
224.742,1.26368,
227.951,1.27337,
231.159,1.27975,
234.367,1.28476,
237.576,1.28996,
240.784,1.29374,
243.992,1.29781,
247.201,1.30158,
250.409,1.30642,
253.617,1.30958,
256.826,1.31519,
260.034,1.32014,
263.2422,1.32644,
266.451,1.33095,
269.659,1.33829,
272.867,1.34507,
276.075,1.35035,
279.284,1.35603,
282.492,1.36213,
285.7,1.36795,
288.9087,1.37363,
292.117,1.37668,
295.325,1.38339,
298.534,1.38800,
301.742,1.39173,
304.95,1.39576,
308.159,1.40158,
311.367,1.40692,
314.5752,1.41175,
317.784,1.41709,
320.992,1.42413,
324.2,1.42920,
327.408,1.43498,
330.617,1.44145,
333.825,1.44748,
337.033,1.45113,
340.2417,1.45402,
343.45,1.45533,
346.658,1.45655,
349.867,1.45783,
353.075,1.45959,
356.283,1.46208,
359.492,1.46649,
362.7,1.47142,
365.908,1.47706,
369.117,1.48266,
372.325,1.48770,
375.533,1.49393,
378.741,1.49912,
381.95,1.50279,
385.158,1.50724,
388.366,1.51018,
391.575,1.51340,
394.783,1.51714,
397.991,1.51925,
401.2,1.52150,
404.408,1.52370,
407.616,1.52987,
410.825,1.53307,
414.0329,1.53835,
417.241,1.54226,
420.45,1.54421,
423.658,1.54602,
426.866,1.54769,
430.074,1.55058,
433.283,1.55217,
436.491,1.55362,
439.6994,1.55662,
442.908,1.55993,
446.116,1.56231,
449.324,1.56357,
452.533,1.56350,
455.741,1.56880,
458.949,1.57145,
462.158,1.57215,
465.3659,1.57689,
468.574,1.57884,
471.783,1.57826,
474.991,1.57839,
478.199,1.58151,
481.407,1.57940,
484.616,1.57700,
487.824,1.57513,
491.0324,1.57464,
494.241,1.57287,
497.449,1.56894,
500.657,1.56779,
503.866,1.56561,
507.074,1.56505,
510.282,1.56574,
513.491,1.56692,
516.699,1.56669,
519.907,1.56563,
523.116,1.56399,
526.324,1.56089,
529.532,1.55581,
532.74,1.55288,
535.949,1.54993,
539.1571,1.54763,
542.365,1.54575,
545.574,1.54371,
548.782,1.54345,
551.99,1.54345,
555.199,1.54272,
558.407,1.54157,
561.615,1.53904,
564.8236,1.53648,
568.032,1.53221,
571.24,1.52875,
574.449,1.52433,
577.657,1.52304,
580.865,1.51736,
584.073,1.51841,
587.282,1.51666,
590.4901,1.51811,
593.698,1.51666,
596.907,1.51779,
600.115,1.51667,
603.323,1.51325,
606.532,1.51358,
609.74,1.51181,
612.948,1.51208,
616.1566,1.51412,
619.365,1.51323,
622.573,1.51227,
625.782,1.51342,
628.99,1.51598,
632.198,1.51382,
635.406,1.51752,
638.615,1.51634,
641.823,1.51636,
645.031,1.51477,
648.24,1.51736,
651.448,1.51963,
654.656,1.51666,
657.865,1.51589,
661.073,1.51450,
664.2813,1.51100,
667.49,1.50670,
670.698,1.50394,
673.906,1.50457,
677.115,1.50305,
680.323,1.50407,
683.531,1.50520,
686.739,1.50657,
689.9478,1.50560,
693.156,1.50565,
696.364,1.50525,
699.573,1.50471,
702.781,1.50407,
705.989,1.50218,
709.198,1.50524,
712.406,1.50555,
715.6143,1.50500,
718.823,1.50579,
722.031,1.50491,
725.239,1.50178,
728.448,1.50173,
731.656,1.50031,
734.864,1.50153,
738.072,1.50387,
741.2808,1.50282,
744.489,1.50127,
747.697,1.50035,
750.906,1.50076,
754.114,1.50112,
757.322,1.49943,
760.531,1.49769,
763.739,1.49497,
766.947,1.49598,
770.156,1.49422,
773.364,1.49501,
776.572,1.49827,
779.781,1.49736,
782.989,1.49545,
786.197,1.49598,
789.405,1.49384,
792.614,1.49630,
795.822,1.49378,
799.03,1.49492,
802.239,1.49149,
805.447,1.49197,
808.655,1.49017,
811.864,1.49081,
815.072,1.49023,
818.28,1.48699,
821.489,1.49001,
824.697,1.49040,
827.905,1.49045,
831.114,1.48999,
834.322,1.48706,
837.53,1.48841,
840.7385,1.48906,
843.947,1.48828,
847.155,1.48495,
850.363,1.48327,
853.572,1.48367,
856.78,1.48133,
859.988,1.47804,
863.197,1.48074,
866.405,1.47871,
869.613,1.47535,
872.822,1.47170,
876.03,1.46710,
879.238,1.46704,
882.447,1.46642,
885.655,1.46245,
888.863,1.46131,
892.0715,1.45965,
895.28,1.45462,
898.488,1.45527,
901.696,1.44987,
904.905,1.44968,
908.113,1.45828,
911.321,1.45910,
914.53,1.44878,
917.738,1.44222,
920.946,1.43620,
924.155,1.42912,
927.363,1.42934,
930.571,1.42682,
933.78,1.42636,
936.988,1.41824,
940.1962,1.41522,
943.405,1.41277,
946.613,1.40617,
949.821,1.39965,
953.029,1.39036,
956.238,1.38344,
959.446,1.37424,
962.654,1.37553,
965.8627,1.37702,
969.071,1.37480,
972.279,1.37075,
975.488,1.36400,
978.696,1.36048,
981.904,1.35354,
985.113,1.35051,
988.321,1.35106,
991.5292,1.34657,
994.738,1.34083,
997.946,1.33059,
1001.15,1.32189,
1004.36,1.30969,
1007.57,1.30074,
1010.78,1.28605,
1013.99,1.28073,
1017.2,1.27422,
1020.4,1.26806,
1023.61,1.26246,
1026.82,1.25380,
1030.03,1.24599,
1033.24,1.24299,
1036.45,1.23793,
1039.65,1.22861,
1042.86,1.23284,
1046.07,1.23237,
1049.28,1.23030,
1052.49,1.22846,
1055.7,1.22285,
1058.9,1.21235,
1062.11,1.20786,
1065.32,1.20314,
1068.53,1.19631,
1071.74,1.18844,
1074.95,1.16816,
1078.15,1.15819,
1081.36,1.14255,
1084.57,1.12231,
1087.78,1.10975,
1090.99,1.09471,
1094.2,1.07924,
1097.4,1.06172,
1100,1.04863,